# this file is part of refractiveindex.info database
# refractiveindex.info database is in the public domain
# copyright and related rights waived via CC0 1.0

REFERENCES: "B. Iezzi, Z. Afkhami, S. Sanvordenker, D. Hoelzle, K. Barton, M. Shtein. Electrohydrodynamic jet printing of 1D photonic crystals: Part II — Optical design and reflectance characteristics, <a href=\"https://doi.org/10.1002/admt.202000431\"><i>Adv. Mater Technol.</i> <b>5</b>, 2000431 (2020)</a> (Numerical data kindly provided by Brian Iezzi)"
COMMENTS: "2 μm film spin-coated onto glass substrates."
DATA:
  - type: tabulated n
    data: |
        0.300 1.5591248
        0.301 1.5589504
        0.302 1.5587730
        0.303 1.5585928
        0.304 1.5584097
        0.305 1.5582240
        0.306 1.5580356
        0.307 1.5578448
        0.308 1.5576516
        0.309 1.5574563
        0.310 1.5572586
        0.311 1.5570589
        0.312 1.5568572
        0.313 1.5566537
        0.314 1.5564483
        0.315 1.5562413
        0.316 1.5560324
        0.317 1.5558221
        0.318 1.5556103
        0.319 1.5553970
        0.320 1.5551823
        0.321 1.5549664
        0.322 1.5547494
        0.323 1.5545311
        0.324 1.5543116
        0.325 1.5540912
        0.326 1.5538698
        0.327 1.5536475
        0.328 1.5534244
        0.329 1.5532004
        0.330 1.5529757
        0.331 1.5527502
        0.332 1.5525241
        0.333 1.5522975
        0.334 1.5520701
        0.335 1.5518425
        0.336 1.5516142
        0.337 1.5513855
        0.338 1.5511565
        0.339 1.5509270
        0.340 1.5506973
        0.341 1.5504674
        0.342 1.5502372
        0.343 1.5500067
        0.344 1.5497762
        0.345 1.5495455
        0.346 1.5493147
        0.347 1.5490838
        0.348 1.5488529
        0.349 1.5486220
        0.350 1.5483911
        0.351 1.5481603
        0.352 1.5479295
        0.353 1.5476989
        0.354 1.5474683
        0.355 1.5472379
        0.356 1.5470077
        0.357 1.5467777
        0.358 1.5465479
        0.359 1.5463183
        0.360 1.5460889
        0.361 1.5458599
        0.362 1.5456312
        0.363 1.5454028
        0.364 1.5451747
        0.365 1.5449469
        0.366 1.5447196
        0.367 1.5444926
        0.368 1.5442660
        0.369 1.5440398
        0.370 1.5438142
        0.371 1.5435889
        0.372 1.5433640
        0.373 1.5431397
        0.374 1.5429158
        0.375 1.5426924
        0.376 1.5424695
        0.377 1.5422472
        0.378 1.5420253
        0.379 1.5418041
        0.380 1.5415834
        0.381 1.5413632
        0.382 1.5411437
        0.383 1.5409245
        0.384 1.5407062
        0.385 1.5404884
        0.386 1.5402712
        0.387 1.5400546
        0.388 1.5398386
        0.389 1.5396231
        0.390 1.5394084
        0.391 1.5391943
        0.392 1.5389808
        0.393 1.5387680
        0.394 1.5385560
        0.395 1.5383445
        0.396 1.5381337
        0.397 1.5379236
        0.398 1.5377141
        0.399 1.5375054
        0.400 1.5372972
        0.401 1.5370900
        0.402 1.5368832
        0.403 1.5366772
        0.404 1.5364720
        0.405 1.5362674
        0.406 1.5360634
        0.407 1.5358603
        0.408 1.5356579
        0.409 1.5354561
        0.410 1.5352551
        0.411 1.5350548
        0.412 1.5348552
        0.413 1.5346564
        0.414 1.5344583
        0.415 1.5342609
        0.416 1.5340642
        0.417 1.5338683
        0.418 1.5336730
        0.419 1.5334786
        0.420 1.5332849
        0.421 1.5330919
        0.422 1.5328996
        0.423 1.5327080
        0.424 1.5325173
        0.425 1.5323272
        0.426 1.5321379
        0.427 1.5319493
        0.428 1.5317614
        0.429 1.5315744
        0.430 1.5313879
        0.431 1.5312023
        0.432 1.5310174
        0.433 1.5308332
        0.434 1.5306498
        0.435 1.5304672
        0.436 1.5302851
        0.437 1.5301039
        0.438 1.5299234
        0.439 1.5297437
        0.440 1.5295646
        0.441 1.5293863
        0.442 1.5292087
        0.443 1.5290319
        0.444 1.5288557
        0.445 1.5286803
        0.446 1.5285056
        0.447 1.5283316
        0.448 1.5281584
        0.449 1.5279859
        0.450 1.5278140
        0.451 1.5276430
        0.452 1.5274726
        0.453 1.5273030
        0.454 1.5271340
        0.455 1.5269657
        0.456 1.5267982
        0.457 1.5266314
        0.458 1.5264653
        0.459 1.5262998
        0.460 1.5261351
        0.461 1.5259710
        0.462 1.5258077
        0.463 1.5256450
        0.464 1.5254831
        0.465 1.5253218
        0.466 1.5251613
        0.467 1.5250014
        0.468 1.5248421
        0.469 1.5246836
        0.470 1.5245258
        0.471 1.5243686
        0.472 1.5242121
        0.473 1.5240563
        0.474 1.5239011
        0.475 1.5237466
        0.476 1.5235928
        0.477 1.5234396
        0.478 1.5232872
        0.479 1.5231353
        0.480 1.5229840
        0.481 1.5228336
        0.482 1.5226836
        0.483 1.5225344
        0.484 1.5223858
        0.485 1.5222379
        0.486 1.5220906
        0.487 1.5219438
        0.488 1.5217978
        0.489 1.5216525
        0.490 1.5215076
        0.491 1.5213635
        0.492 1.5212200
        0.493 1.5210770
        0.494 1.5209348
        0.495 1.5207931
        0.496 1.5206520
        0.497 1.5205116
        0.498 1.5203718
        0.499 1.5202326
        0.500 1.5200939
        0.501 1.5199560
        0.502 1.5198185
        0.503 1.5196817
        0.504 1.5195456
        0.505 1.5194099
        0.506 1.5192748
        0.507 1.5191404
        0.508 1.5190065
        0.509 1.5188732
        0.510 1.5187405
        0.511 1.5186085
        0.512 1.5184768
        0.513 1.5183460
        0.514 1.5182155
        0.515 1.5180857
        0.516 1.5179564
        0.517 1.5178276
        0.518 1.5176995
        0.519 1.5175719
        0.520 1.5174448
        0.521 1.5173184
        0.522 1.5171925
        0.523 1.5170671
        0.524 1.5169421
        0.525 1.5168179
        0.526 1.5166941
        0.527 1.5165709
        0.528 1.5164481
        0.529 1.5163261
        0.530 1.5162044
        0.531 1.5160832
        0.532 1.5159627
        0.533 1.5158427
        0.534 1.5157231
        0.535 1.5156040
        0.536 1.5154855
        0.537 1.5153675
        0.538 1.5152501
        0.539 1.5151330
        0.540 1.5150166
        0.541 1.5149006
        0.542 1.5147852
        0.543 1.5146701
        0.544 1.5145557
        0.545 1.5144416
        0.546 1.5143281
        0.547 1.5142151
        0.548 1.5141026
        0.549 1.5139906
        0.550 1.5138791
        0.551 1.5137680
        0.552 1.5136573
        0.553 1.5135472
        0.554 1.5134375
        0.555 1.5133283
        0.556 1.5132196
        0.557 1.5131114
        0.558 1.5130036
        0.559 1.5128963
        0.560 1.5127894
        0.561 1.5126829
        0.562 1.5125769
        0.563 1.5124714
        0.564 1.5123664
        0.565 1.5122617
        0.566 1.5121577
        0.567 1.5120538
        0.568 1.5119506
        0.569 1.5118477
        0.570 1.5117453
        0.571 1.5116434
        0.572 1.5115418
        0.573 1.5114408
        0.574 1.5113400
        0.575 1.5112398
        0.576 1.5111399
        0.577 1.5110406
        0.578 1.5109415
        0.579 1.5108429
        0.580 1.5107448
        0.581 1.5106470
        0.582 1.5105497
        0.583 1.5104527
        0.584 1.5103562
        0.585 1.5102601
        0.586 1.5101644
        0.587 1.5100691
        0.588 1.5099741
        0.589 1.5098797
        0.590 1.5097855
        0.591 1.5096918
        0.592 1.5095985
        0.593 1.5095055
        0.594 1.5094130
        0.595 1.5093209
        0.596 1.5092291
        0.597 1.5091376
        0.598 1.5090466
        0.599 1.5089560
        0.600 1.5088657
        0.601 1.5087757
        0.602 1.5086862
        0.603 1.5085971
        0.604 1.5085083
        0.605 1.5084199
        0.606 1.5083318
        0.607 1.5082442
        0.608 1.5081568
        0.609 1.5080699
        0.610 1.5079832
        0.611 1.5078970
        0.612 1.5078111
        0.613 1.5077255
        0.614 1.5076404
        0.615 1.5075555
        0.616 1.5074710
        0.617 1.5073868
        0.618 1.5073030
        0.619 1.5072196
        0.620 1.5071365
        0.621 1.5070536
        0.622 1.5069711
        0.623 1.5068891
        0.624 1.5068073
        0.625 1.5067258
        0.626 1.5066447
        0.627 1.5065639
        0.628 1.5064834
        0.629 1.5064033
        0.630 1.5063235
        0.631 1.5062441
        0.632 1.5061648
        0.633 1.5060860
        0.634 1.5060074
        0.635 1.5059292
        0.636 1.5058514
        0.637 1.5057738
        0.638 1.5056964
        0.639 1.5056195
        0.640 1.5055429
        0.641 1.5054665
        0.642 1.5053904
        0.643 1.5053147
        0.644 1.5052392
        0.645 1.5051641
        0.646 1.5050893
        0.647 1.5050148
        0.648 1.5049405
        0.649 1.5048666
        0.650 1.5047929
        0.651 1.5047195
        0.652 1.5046464
        0.653 1.5045737
        0.654 1.5045012
        0.655 1.5044290
        0.656 1.5043570
        0.657 1.5042853
        0.658 1.5042140
        0.659 1.5041430
        0.660 1.5040722
        0.661 1.5040016
        0.662 1.5039314
        0.663 1.5038614
        0.664 1.5037917
        0.665 1.5037223
        0.666 1.5036532
        0.667 1.5035843
        0.668 1.5035157
        0.669 1.5034473
        0.670 1.5033792
        0.671 1.5033114
        0.672 1.5032439
        0.673 1.5031766
        0.674 1.5031096
        0.675 1.5030428
        0.676 1.5029763
        0.677 1.5029100
        0.678 1.5028441
        0.679 1.5027783
        0.680 1.5027128
        0.681 1.5026476
        0.682 1.5025827
        0.683 1.5025179
        0.684 1.5024534
        0.685 1.5023892
        0.686 1.5023252
        0.687 1.5022615
        0.688 1.5021980
        0.689 1.5021347
        0.690 1.5020717
        0.691 1.5020089
        0.692 1.5019464
        0.693 1.5018841
        0.694 1.5018221
        0.695 1.5017602
        0.696 1.5016986
        0.697 1.5016373
        0.698 1.5015762
        0.699 1.5015153
        0.700 1.5014546
        0.701 1.5013942
        0.702 1.5013340
        0.703 1.5012740
        0.704 1.5012143
        0.705 1.5011548
        0.706 1.5010954
        0.707 1.5010364
        0.708 1.5009775
        0.709 1.5009189
        0.710 1.5008605
        0.711 1.5008023
        0.712 1.5007443
        0.713 1.5006865
        0.714 1.5006290
        0.715 1.5005716
        0.716 1.5005145
        0.717 1.5004576
        0.718 1.5004009
        0.719 1.5003445
        0.720 1.5002882
        0.721 1.5002321
        0.722 1.5001763
        0.723 1.5001206
        0.724 1.5000652
        0.725 1.5000099
        0.726 1.4999549
        0.727 1.4999001
        0.728 1.4998454
        0.729 1.4997910
        0.730 1.4997368
        0.731 1.4996828
        0.732 1.4996289
        0.733 1.4995753
        0.734 1.4995219
        0.735 1.4994686
        0.736 1.4994155
        0.737 1.4993627
        0.738 1.4993100
        0.739 1.4992576
        0.740 1.4992052
        0.741 1.4991531
        0.742 1.4991013
        0.743 1.4990495
        0.744 1.4989980
        0.745 1.4989467
        0.746 1.4988955
        0.747 1.4988445
        0.748 1.4987937
        0.749 1.4987432
        0.750 1.4986928
        0.751 1.4986424
        0.752 1.4985924
        0.753 1.4985425
        0.754 1.4984928
        0.755 1.4984434
        0.756 1.4983940
        0.757 1.4983448
        0.758 1.4982958
        0.759 1.4982470
        0.760 1.4981984
        0.761 1.4981499
        0.762 1.4981016
        0.763 1.4980534
        0.764 1.4980055
        0.765 1.4979577
        0.766 1.4979101
        0.767 1.4978627
        0.768 1.4978154
        0.769 1.4977683
        0.770 1.4977213
        0.771 1.4976745
        0.772 1.4976279
        0.773 1.4975815
        0.774 1.4975351
        0.775 1.4974890
        0.776 1.4974431
        0.777 1.4973973
        0.778 1.4973516
        0.779 1.4973061
        0.780 1.4972608
        0.781 1.4972156
        0.782 1.4971707
        0.783 1.4971257
        0.784 1.4970810
        0.785 1.4970366
        0.786 1.4969921
        0.787 1.4969479
        0.788 1.4969039
        0.789 1.4968599
        0.790 1.4968162
        0.791 1.4967725
        0.792 1.4967290
        0.793 1.4966857
        0.794 1.4966426
        0.795 1.4965996
        0.796 1.4965566
        0.797 1.4965140
        0.798 1.4964713
        0.799 1.4964290
        0.800 1.4963866
        0.801 1.4963444
        0.802 1.4963025
        0.803 1.4962606
        0.804 1.4962189
        0.805 1.4961773
        0.806 1.4961360
        0.807 1.4960946
        0.808 1.4960535
        0.809 1.4960124
        0.810 1.4959716
        0.811 1.4959308
        0.812 1.4958903
        0.813 1.4958498
        0.814 1.4958094
        0.815 1.4957693
        0.816 1.4957292
        0.817 1.4956893
        0.818 1.4956496
        0.819 1.4956099
        0.820 1.4955704
        0.821 1.4955310
        0.822 1.4954917
        0.823 1.4954526
        0.824 1.4954137
        0.825 1.4953748
        0.826 1.4953360
        0.827 1.4952974
        0.828 1.4952590
        0.829 1.4952207
        0.830 1.4951825
        0.831 1.4951444
        0.832 1.4951065
        0.833 1.4950686
        0.834 1.4950309
        0.835 1.4949933
        0.836 1.4949559
        0.837 1.4949185
        0.838 1.4948813
        0.839 1.4948442
        0.840 1.4948072
        0.841 1.4947704
        0.842 1.4947337
        0.843 1.4946971
        0.844 1.4946606
        0.845 1.4946243
        0.846 1.4945880
        0.847 1.4945519
        0.848 1.4945159
        0.849 1.4944800
        0.850 1.4944443
        0.851 1.4944085
        0.852 1.4943730
        0.853 1.4943376
        0.854 1.4943023
        0.855 1.4942671
        0.856 1.4942320
        0.857 1.4941970
        0.858 1.4941622
        0.859 1.4941274
        0.860 1.4940928
        0.861 1.4940583
        0.862 1.4940239
        0.863 1.4939896
        0.864 1.4939554
        0.865 1.4939214
        0.866 1.4938874
        0.867 1.4938536
        0.868 1.4938198
        0.869 1.4937861
        0.870 1.4937526
        0.871 1.4937192
        0.872 1.4936858
        0.873 1.4936527
        0.874 1.4936196
        0.875 1.4935865
        0.876 1.4935536
        0.877 1.4935209
        0.878 1.4934882
        0.879 1.4934556
        0.880 1.4934231
        0.881 1.4933908
        0.882 1.4933585
        0.883 1.4933263
        0.884 1.4932942
        0.885 1.4932623
        0.886 1.4932305
        0.887 1.4931986
        0.888 1.4931670
        0.889 1.4931355
        0.890 1.4931040
        0.891 1.4930726
        0.892 1.4930414
        0.893 1.4930102
        0.894 1.4929790
        0.895 1.4929482
        0.896 1.4929172
        0.897 1.4928864
        0.898 1.4928558
        0.899 1.4928252
        0.900 1.4927946
        0.901 1.4927642
        0.902 1.4927340
        0.903 1.4927038
        0.904 1.4926736
        0.905 1.4926436
        0.906 1.4926137
        0.907 1.4925839
        0.908 1.4925541
        0.909 1.4925244
        0.910 1.4924948
        0.911 1.4924654
        0.912 1.4924360
        0.913 1.4924067
        0.914 1.4923775
        0.915 1.4923484
        0.916 1.4923193
        0.917 1.4922904
        0.918 1.4922615
        0.919 1.4922328
        0.920 1.4922042
        0.921 1.4921756
        0.922 1.4921471
        0.923 1.4921187
        0.924 1.4920903
        0.925 1.4920621
        0.926 1.4920340
        0.927 1.4920058
        0.928 1.4919779
        0.929 1.4919500
        0.930 1.4919221
        0.931 1.4918945
        0.932 1.4918668
        0.933 1.4918393
        0.934 1.4918118
        0.935 1.4917843
        0.936 1.4917570
        0.937 1.4917299
        0.938 1.4917027
        0.939 1.4916756
        0.940 1.4916487
        0.941 1.4916217
        0.942 1.4915949
        0.943 1.4915682
        0.944 1.4915415
        0.945 1.4915149
        0.946 1.4914885
        0.947 1.4914620
        0.948 1.4914356
        0.949 1.4914094
        0.950 1.4913832
        0.951 1.4913571
        0.952 1.4913310
        0.953 1.4913051
        0.954 1.4912792
        0.955 1.4912534
        0.956 1.4912276
        0.957 1.4912020
        0.958 1.4911765
        0.959 1.4911510
        0.960 1.4911255
        0.961 1.4911002
        0.962 1.4910749
        0.963 1.4910496
        0.964 1.4910245
        0.965 1.4909995
        0.966 1.4909745
        0.967 1.4909496
        0.968 1.4909247
        0.969 1.4909000
        0.970 1.4908752
        0.971 1.4908507
        0.972 1.4908261
        0.973 1.4908017
        0.974 1.4907773
        0.975 1.4907529
        0.976 1.4907286
        0.977 1.4907044
        0.978 1.4906803
        0.979 1.4906563
        0.980 1.4906323
        0.981 1.4906083
        0.982 1.4905845
        0.983 1.4905608
        0.984 1.4905370
        0.985 1.4905134
        0.986 1.4904898
        0.987 1.4904664
        0.988 1.4904429
        0.989 1.4904195
        0.990 1.4903963
        0.991 1.4903730
        0.992 1.4903498
        0.993 1.4903268
        0.994 1.4903036
        0.995 1.4902807
        0.996 1.4902579
        0.997 1.4902350
        0.998 1.4902122
        0.999 1.4901894
        1.000 1.4901668
SPECS:
    n_is_absolute: false
    wavelength_is_vacuum: false
    film_thickness: 2e-6
    substrate: glass
